#Wavelength(nm)	T%
1100		94.97577667
1099.5		95.08518982
1099		95.05197144
1098.5		95.23469543
1098		95.29535675
1097.5		95.3605423
1097		95.47292328
1096.5		95.54246521
1096		95.62789917
1095.5		95.70654297
1095		95.7646637
1094.5		95.85656738
1094		95.9187088
1093.5		95.99959564
1093		96.06082153
1092.5		96.11882019
1092		96.1893158
1091.5		96.24501801
1091		96.31253815
1090.5		96.37808228
1090		96.40837097
1089.5		96.45539856
1089		96.49891663
1088.5		96.53031158
1088		96.57068634
1087.5		96.61348724
1087		96.65535736
1086.5		96.67946625
1086		96.70198822
1085.5		96.7334137
1085		96.75403595
1084.5		96.78130341
1084		96.79795837
1083.5		96.81054688
1083		96.8117981
1082.5		96.82691956
1082		96.82421112
1081.5		96.83420563
1081		96.81868744
1080.5		96.8287735
1080		96.81374359
1079.5		96.80735779
1079		96.7647171
1078.5		96.73852539
1078		96.7268219
1077.5		96.69101715
1077		96.65624237
1076.5		96.63356018
1076		96.58624268
1075.5		96.53913116
1075		96.5010376
1074.5		96.45188141
1074		96.3860321
1073.5		96.34793091
1073		96.30960083
1072.5		96.24787903
1072		96.18953705
1071.5		96.1264801
1071		96.03720856
1070.5		96.00321198
1070		95.91667175
1069.5		95.83124542
1069		95.79159546
1068.5		95.69664764
1068		95.62705994
1067.5		95.54466248
1067		95.4741745
1066.5		95.41275787
1066		95.30574799
1065.5		95.23744202
1065		95.15951538
1064.5		95.08837128
1064		94.98840332
1063.5		94.90532684
1063		94.81380463
1062.5		94.74954224
1062		94.65463257
1061.5		94.57984161
1061		94.49487305
1060.5		94.40932465
1060		94.32466125
1059.5		94.26105499
1059		94.14846039
1058.5		94.06611633
1058		93.99554443
1057.5		93.91519165
1057		93.82337189
1056.5		93.76837921
1056		93.68376923
1055.5		93.61529541
1055		93.55565643
1054.5		93.47988892
1054		93.42405701
1053.5		93.35684204
1053		93.29331207
1052.5		93.2263031
1052		93.15951538
1051.5		93.11455536
1051		93.06491089
1050.5		93.02274323
1050		92.96203613
1049.5		92.91518402
1049		92.87072754
1048.5		92.81889343
1048		92.78857422
1047.5		92.75756836
1047		92.73449707
1046.5		92.70591736
1046		92.6740036
1045.5		92.65535736
1045		92.64635468
1044.5		92.61968994
1044		92.61376953
1043.5		92.60667419
1043		92.58781433
1042.5		92.58443451
1042		92.59488678
1041.5		92.60437012
1041		92.60266113
1040.5		92.61378479
1040		92.63699341
1039.5		92.64846802
1039		92.65869904
1038.5		92.68575287
1038		92.72100067
1037.5		92.74093628
1037		92.77957153
1036.5		92.81832123
1036		92.84737396
1035.5		92.8944397
1035		92.9377594
1034.5		92.99992371
1034		93.02774048
1033.5		93.09137726
1033		93.15544128
1032.5		93.20202637
1032		93.26364136
1031.5		93.32331085
1031		93.39707947
1030.5		93.4466095
1030		93.51824188
1029.5		93.60430908
1029		93.66854095
1028.5		93.73200226
1028		93.81519318
1027.5		93.8881073
1027		93.96976471
1026.5		94.03780365
1026		94.11910248
1025.5		94.20137024
1025		94.2727356
1024.5		94.3728714
1024		94.4517746
1023.5		94.52115631
1023		94.61277771
1022.5		94.69126129
1022		94.78757477
1021.5		94.84005737
1021		94.93750763
1020.5		95.00515747
1020		95.10002136
1019.5		95.16282654
1019		95.23693848
1018.5		95.32446289
1018		95.39962769
1017.5		95.45513153
1017		95.53095245
1016.5		95.61402893
1016		95.67529297
1015.5		95.7268219
1015		95.80114746
1014.5		95.87742615
1014		95.90953827
1013.5		95.97891998
1013		96.0090332
1012.5		96.10011292
1012		96.12911224
1011.5		96.16807556
1011		96.20861053
1010.5		96.27288818
1010		96.2934494
1009.5		96.32923889
1009		96.3484726
1008.5		96.40018463
1008		96.39600372
1007.5		96.44471741
1007		96.43444824
1006.5		96.47111511
1006		96.46697998
1005.5		96.48296356
1005		96.4923172
1004.5		96.49924469
1004		96.49199677
1003.5		96.48005676
1003		96.46079254
1002.5		96.47731781
1002		96.45932007
1001.5		96.43548584
1001		96.41015625
1000.5		96.39518738
1000		96.3752594
999.5		96.35587311
999		96.31008911
998.5		96.29776764
998		96.26978302
997.5		96.22026062
997		96.17961121
996.5		96.13931274
996		96.10480499
995.5		96.06446075
995		96.01237488
994.5		95.96756744
994		95.91958618
993.5		95.87901306
993		95.83055115
992.5		95.76378632
992		95.71380615
991.5		95.68576813
991		95.61656952
990.5		95.55622101
990		95.50488281
989.5		95.4656601
989		95.40913391
988.5		95.35700989
988		95.29885864
987.5		95.24609375
987		95.2016449
986.5		95.16144562
986		95.10322571
985.5		95.04998016
985		95.00283051
984.5		94.96604919
984		94.92987061
983.5		94.86979675
983		94.82962799
982.5		94.79930115
982		94.76651001
981.5		94.73684692
981		94.6855545
980.5		94.64819336
980		94.62755585
979.5		94.61186218
979		94.59542847
978.5		94.55700684
978		94.53161621
977.5		94.52448273
977		94.53464508
976.5		94.51582336
976		94.51876068
975.5		94.50830841
975		94.51793671
974.5		94.50328064
974		94.50189209
973.5		94.49849701
973		94.507164
972.5		94.52223969
972		94.54049683
971.5		94.55911255
971		94.57118225
970.5		94.58617401
970		94.60704041
969.5		94.64286804
969		94.67395782
968.5		94.70228577
968		94.74095917
967.5		94.77041626
967		94.80486298
966.5		94.83664703
966		94.88142395
965.5		94.92941284
965		94.9659729
964.5		95.00943756
964		95.0621109
963.5		95.10616302
963		95.15415192
962.5		95.20116425
962		95.24838257
961.5		95.29919434
961		95.36090851
960.5		95.41090393
960		95.45952606
959.5		95.51486206
959		95.56886292
958.5		95.62273407
958		95.66747284
957.5		95.71417236
957		95.76609802
956.5		95.81676483
956		95.8811264
955.5		95.93471527
955		95.97839355
954.5		96.0229187
954		96.07395935
953.5		96.12509155
953		96.1760025
952.5		96.22322083
952		96.25787354
951.5		96.2975769
951		96.33570862
950.5		96.37534332
950		96.43389893
949.5		96.45972443
949		96.51030731
948.5		96.52921295
948		96.55625153
947.5		96.57568359
947		96.62067413
946.5		96.64977264
946		96.67642212
945.5		96.6963501
945		96.71549225
944.5		96.73449707
944		96.7514267
943.5		96.77760315
943		96.79819489
942.5		96.81609344
942		96.82019806
941.5		96.84135437
941		96.84272003
940.5		96.83943176
940		96.86801147
939.5		96.88530731
939		96.89111328
938.5		96.89044952
938		96.89099121
937.5		96.88313293
937		96.89552307
936.5		96.88438416
936		96.88975525
935.5		96.89848328
935		96.89149475
934.5		96.88964081
934		96.88193512
933.5		96.87593842
933		96.87203217
932.5		96.86548615
932		96.86745453
931.5		96.85269165
931		96.85211945
930.5		96.83753967
930		96.84102631
929.5		96.8289032
929		96.82223511
928.5		96.82133484
928		96.81526184
927.5		96.80744171
927		96.80479431
926.5		96.80602264
926		96.80122375
925.5		96.79128265
925		96.79634857
924.5		96.79335022
924		96.79116821
923.5		96.78820038
923		96.79503632
922.5		96.79836273
922		96.80062103
921.5		96.8036499
921		96.80588531
920.5		96.81504059
920		96.82258606
919.5		96.82359314
919		96.82855988
918.5		96.83834076
918		96.84527588
917.5		96.8518219
917		96.86394501
916.5		96.87593079
916		96.88547516
915.5		96.89025879
915		96.90711212
914.5		96.91129303
914		96.92362213
913.5		96.93697357
913		96.94561005
912.5		96.95693207
912		96.9582901
911.5		96.97061157
911		96.97544861
910.5		96.98241425
910		96.98806763
909.5		96.99624634
909		97.00953674
908.5		97.009758
908		97.01773071
907.5		97.01993561
907		97.02514648
906.5		97.0306015
906		97.03419495
905.5		97.03263855
905		97.03768158
904.5		97.0397644
904		97.03582764
903.5		97.03725433
903		97.04062653
902.5		97.03781128
902		97.0306015
901.5		97.0295639
901		97.02841949
900.5		97.02537537
900		97.02243042
899.5		97.00983429
899		97.01766968
898.5		97.0018158
898		97.00650024
897.5		97.00403595
897		96.99651337
896.5		96.99278259
896		96.99898529
895.5		96.99295044
895		96.98503876
894.5		96.97766113
894		96.97724915
893.5		96.97787476
893		96.97885132
892.5		96.97268677
892		96.97418976
891.5		96.97157288
891		96.97530365
890.5		96.96915436
890		96.97315216
889.5		96.96996307
889		96.97820282
888.5		96.97480774
888		96.97418976
887.5		96.98099518
887		96.98351288
886.5		96.98923492
886		96.99501038
885.5		96.99757385
885		97.00489044
884.5		97.0078125
884		97.00837708
883.5		97.01194
883		97.01877594
882.5		97.0253067
882		97.02875519
881.5		97.03562164
881		97.03543854
880.5		97.04042816
880		97.0426712
879.5		97.04662323
879		97.04827881
878.5		97.04769135
878		97.04373932
877.5		97.04671478
877		97.04631042
876.5		97.03482056
876		97.0432663
875.5		97.03170776
875		97.02680969
874.5		97.0124054
874		97.01034546
873.5		97.00259399
873		96.99087524
872.5		96.97660065
872		96.9671402
871.5		96.94720459
871		96.92988586
870.5		96.92227936
870		96.91069031
869.5		96.88597107
869		96.87063599
868.5		96.85218811
868		96.82975769
867.5		96.81667328
867		96.79883575
866.5		96.78495789
866		96.76534271
865.5		96.74778748
865		96.73045349
864.5		96.71583557
864		96.69966125
863.5		96.69030762
863		96.68223572
862.5		96.66236877
862		96.65240479
861.5		96.64098358
861		96.64081573
860.5		96.63324738
860		96.63014221
859.5		96.62450409
859		96.62291718
858.5		96.6335907
858		96.62979889
857.5		96.63058472
857		96.63394165
856.5		96.64167023
856		96.65032959
855.5		96.64746857
855		96.65474701
854.5		96.66452789
854		96.67060852
853.5		96.67438507
853		96.67982483
852.5		96.67646027
852		96.68054199
851.5		96.68117523
851		96.68196106
850.5		96.67196655
850		96.66350555
849.5		96.55302429
849		96.51531219
848.5		96.46533966
848		96.42432404
847.5		96.39312744
847		96.33145905
846.5		96.29790497
846		96.17971039
845.5		96.04560852
845		95.93101501
844.5		95.7433548
844		95.51366425
843.5		95.26663208
843		94.92093658
842.5		94.54827881
842		94.08890533
841.5		93.47676086
841		92.7786026
840.5		91.93029785
840		90.94683075
839.5		89.75585938
839		88.36048126
838.5		86.76685333
838		84.90127563
837.5		82.79769135
837		80.40267944
836.5		77.75244141
836		74.78807831
835.5		71.51604462
835		68.1072464
834.5		64.45021057
834		60.590065
833.5		56.68083572
833		52.63693237
832.5		48.61355591
832		44.62142563
831.5		40.72393799
831		37.00830841
830.5		33.40045929
830		30.11389351
829.5		26.97447586
829		24.06350708
828.5		21.44929314
828		19.05461502
827.5		16.87932396
827		14.95741272
826.5		13.22409916
826		11.66089153
825.5		10.28210163
825		9.08589077
824.5		8.001963615
824		7.05717802
823.5		6.234388351
823		5.500495911
822.5		4.84455204
822		4.283341408
821.5		3.786899805
821		3.347087622
820.5		2.965273619
820		2.62754941
819.5		2.327847958
819		2.063337088
818.5		1.83622539
818		1.634184599
817.5		1.452885866
817		1.295580506
816.5		1.15552187
816		1.030923724
815.5		0.920747995
815		0.824912906
814.5		0.738641501
814		0.661791563
813.5		0.594065189
813		0.532849193
812.5		0.478567183
812		0.430637747
811.5		0.388048768
811		0.348919749
810.5		0.315697551
810		0.284642458
809.5		0.256882012
809		0.232763007
808.5		0.21062687
808		0.190908328
807.5		0.173346788
807		0.157283038
806.5		0.142730653
806		0.129319012
805.5		0.118031599
805		0.107369304
804.5		0.097800642
804		0.089098156
803.5		0.081547052
803		0.074212819
802.5		0.0680364
802		0.062156249
801.5		0.056937236
801		0.052011415
800.5		0.047582496
800		0.043904163
799.5		0.040268291
799		0.036918201
798.5		0.033806894
798		0.031177146
797.5		0.028622601
797		0.026548008
796.5		0.02434448
796		0.022449283
795.5		0.020734351
795		0.019018302
794.5		0.017587855
794		0.016139425
793.5		0.01503728
793		0.013765367
792.5		0.01293626
792		0.011938241
791.5		0.011015337
791		0.010210045
790.5		0.009631975
790		0.008670545
789.5		0.008268604
789		0.007587745
788.5		0.007181429
788		0.006672598
787.5		0.006131105
787		0.00573436
786.5		0.005376955
786		0.004925706
785.5		0.004571368
785		0.004165595
784.5		0.004086027
784		0.003731839
783.5		0.003581556
783		0.003336531
782.5		0.003075516
782		0.002853128
781.5		0.002736772
781		0.002626535
780.5		0.002302827
780		0.002153721
779.5		0.001994741
779		0.001913989
778.5		0.001832602
778		0.001741313
777.5		0.001587739
777		0.001548443
776.5		0.001355374
776		0.001293392
775.5		0.001296321
775		0.001274114
774.5		0.001137061
774		0.001031756
773.5		0.001019921
773		0.000917728
772.5		0.001012871
772		0.000871888
771.5		0.001009822
771		0.00068123
770.5		0.000703815
770		0.000626969
769.5		0.000597543
769		0.000557579
768.5		0.000469923
768		0.000456023
767.5		0.000451697
767		0.000344267
766.5		0.000477885
766		0.000548739
765.5		0.000313029
765		0.000395818
764.5		0.000590204
764		0.000304096
763.5		0.000390466
763		0.000379938
762.5		0.000347997
762		0.000327348
761.5		0.000207391
761		0.000409679
760.5		0.000283536
760		0.000329622
759.5		0.000161579
759		0.00023783
758.5		0.000295348
758		0.000174841
757.5		0.000246636
757		0.00022679
756.5		0.000138135
756		0.000205903
755.5		0.000213143
755		6.36E-05
754.5		9.33E-05
754		5.99E-05
753.5		0.000121197
753		0.000168159
752.5		0.000166664
752		2.85E-05
751.5		0.000148034
751		1.48E-05
750.5		0.000102131
750		5.53E-05
749.5		3.39E-05
749		0.000198439
748.5		2.36E-05
748		8.47E-05
747.5		2.50E-05
747		0.000172578
746.5		1.94E-05
746		0.000131229
745.5		-3.69E-06
745		0.000140571
744.5		2.33E-05
744		7.24E-05
743.5		6.54E-05
743		4.01E-05
742.5		0.000141264
742		0.000216386
741.5		2.03E-05
741		9.21E-05
740.5		3.59E-05
740		-8.41E-06
739.5		2.47E-05
739		6.48E-05
738.5		2.70E-05
738		4.79E-05
737.5		-9.79E-05
737		-3.05E-05
736.5		0.000154068
736		3.44E-05
735.5		-8.59E-05
735		8.08E-05
734.5		8.94E-05
734		6.26E-06
733.5		2.69E-06
733		6.40E-05
732.5		2.56E-06
732		4.64E-05
731.5		5.50E-05
731		0.000138513
730.5		-5.06E-06
730		0.000133428
729.5		0.000136273
729		0.000105865
728.5		-5.48E-05
728		6.91E-05
727.5		6.91E-05
727		0.000100346
726.5		4.82E-05
726		5.86E-06
725.5		0.000128436
725		-6.50E-06
724.5		1.44E-05
724		-1.44E-05
723.5		0.000108611
723		0.000120806
722.5		-1.81E-05
722		-3.86E-05
721.5		4.99E-05
721		-8.20E-05
720.5		7.31E-05
720		-1.64E-05
719.5		0.000132182
719		0.00015677
718.5		-1.25E-06
718		4.12E-05
717.5		0.000121903
717		-2.53E-05
716.5		2.40E-05
716		0.000113294
715.5		6.88E-05
715		-1.31E-05
714.5		8.96E-05
714		5.40E-05
713.5		9.86E-06
713		1.88E-05
712.5		0.000140863
712		-3.44E-05
711.5		3.26E-05
711		0.00018069
710.5		-1.11E-05
710		1.99E-05
709.5		-7.12E-05
709		-9.31E-05
708.5		-0.000163566
708		-8.69E-05
707.5		9.36E-05
707		2.09E-05
706.5		-2.01E-05
706		0.000101541
705.5		-3.04E-05
705		-1.95E-05
704.5		8.81E-05
704		-1.05E-05
703.5		5.90E-05
703		-1.20E-05
702.5		5.70E-05
702		8.17E-05
701.5		-4.42E-05
701		-6.42E-05
700.5		-3.00E-05
700		-1.36E-05
699.5		-3.22E-05
699		1.74E-05
698.5		5.17E-05
698		6.74E-05
697.5		0.000121058
697		4.47E-05
696.5		-4.51E-05
696		5.26E-05
695.5		4.96E-05
695		2.91E-05
694.5		-7.35E-05
694		-6.82E-06
693.5		4.42E-05
693		0.000113917
692.5		6.35E-05
692		8.55E-05
691.5		-5.02E-05
691		-9.03E-06
690.5		7.24E-05
690		4.34E-05
689.5		0.000159257
689		4.42E-05
688.5		-4.12E-05
688		-1.28E-05
687.5		-1.87E-05
687		-2.28E-05
686.5		3.72E-05
686		0.000171009
685.5		-0.000117632
685		-5.67E-05
684.5		3.11E-05
684		3.83E-05
683.5		-5.35E-05
683		-2.41E-05
682.5		1.03E-05
682		5.11E-05
681.5		8.21E-05
681		4.44E-05
680.5		-2.06E-05
680		4.63E-06
679.5		7.38E-05
679		3.65E-05
678.5		0.000185352
678		-6.76E-05
677.5		-0.000106948
677		-8.68E-05
676.5		0.000115646
676		5.28E-05
675.5		-4.02E-05
675		-4.49E-05
674.5		-3.52E-05
674		6.37E-05
673.5		-2.82E-05
673		-0.000121188
672.5		2.84E-05
672		4.68E-05
671.5		1.05E-05
671		-6.52E-05
670.5		-2.86E-05
670		1.44E-05
669.5		-0.000104681
669		-4.66E-05
668.5		2.54E-05
668		-8.31E-06
667.5		4.08E-05
667		4.73E-05
666.5		1.36E-05
666		4.83E-05
665.5		9.80E-05
665		-5.25E-06
664.5		6.48E-05
664		4.24E-05
663.5		4.99E-05
663		-7.32E-06
662.5		-1.64E-05
662		1.70E-05
661.5		-8.98E-05
661		0.000156037
660.5		0.000145722
660		1.73E-05
659.5		1.68E-05
659		0.000107259
658.5		4.70E-05
658		0.000105868
657.5		9.37E-06
657		8.12E-05
656.5		0.000121701
656		-3.57E-05
655.5		3.25E-05
655		3.39E-05
654.5		7.47E-05
654		-5.46E-05
653.5		-9.21E-05
653		-6.09E-06
652.5		6.60E-05
652		-2.29E-06
651.5		4.05E-05
651		-3.27E-05
650.5		0.000172721
650		8.98E-05
649.5		-1.17E-05
649		-5.04E-05
648.5		3.92E-05
648		6.59E-05
647.5		-4.85E-05
647		-4.32E-05
646.5		4.89E-05
646		1.26E-05
645.5		2.41E-05
645		0.000108384
644.5		2.62E-05
644		9.51E-05
643.5		-4.96E-05
643		4.25E-05
642.5		1.12E-05
642		-4.01E-05
641.5		0.000138438
641		-8.06E-05
640.5		-4.74E-05
640		0.000164238
639.5		-6.37E-05
639		1.19E-05
638.5		2.39E-05
638		-5.01E-06
637.5		-2.44E-05
637		-7.07E-07
636.5		3.72E-05
636		7.25E-05
635.5		0.000212017
635		6.10E-05
634.5		8.26E-05
634		7.65E-05
633.5		6.40E-05
633		-4.92E-06
632.5		1.74E-05
632		7.09E-05
631.5		-0.000109685
631		-2.54E-05
630.5		-5.10E-05
630		2.40E-05
629.5		-5.15E-05
629		5.81E-05
628.5		2.62E-05
628		0.000104875
627.5		6.74E-05
627		-1.43E-05
626.5		-0.000165896
626		-2.20E-05
625.5		0.000132784
625		3.77E-05
624.5		-0.000122728
624		-4.23E-05
623.5		1.24E-05
623		3.52E-05
622.5		4.91E-05
622		1.40E-05
621.5		4.43E-05
621		7.04E-06
620.5		9.35E-05
620		-1.83E-05
619.5		5.29E-05
619		2.85E-05
618.5		-9.78E-05
618		2.78E-05
617.5		-1.65E-05
617		6.68E-05
616.5		0.00012944
616		1.52E-05
615.5		-1.03E-05
615		6.20E-05
614.5		3.46E-05
614		-1.30E-05
613.5		-2.60E-05
613		3.67E-05
612.5		-5.96E-06
612		5.10E-05
611.5		-2.67E-06
611		3.15E-05
610.5		2.80E-06
610		-8.19E-06
609.5		4.63E-06
609		4.31E-05
608.5		-6.41E-05
608		6.44E-05
607.5		-3.95E-05
607		4.26E-05
606.5		2.10E-05
606		6.64E-05
605.5		1.07E-05
605		-4.13E-05
604.5		-3.76E-05
604		-7.68E-05
603.5		-4.59E-05
603		1.26E-05
602.5		0.000113822
602		-3.08E-05
601.5		-5.74E-05
601		-0.000110812
600.5		-3.01E-05
600		-5.40E-05
599.5		5.00E-05
599		-1.47E-05
598.5		-2.06E-06
598		0.000224966
597.5		-2.60E-05
597		0.000170909
596.5		6.31E-06
596		0.000104806
595.5		4.08E-05
595		-6.78E-05
594.5		7.07E-06
594		4.06E-05
593.5		3.81E-05
593		-5.80E-06
592.5		7.22E-05
592		-3.94E-06
591.5		4.95E-05
591		0.000128755
590.5		6.59E-05
590		-2.86E-05
589.5		3.15E-05
589		7.05E-05
588.5		-0.000137568
588		9.13E-06
587.5		6.61E-06
587		-6.61E-05
586.5		5.05E-06
586		-3.52E-05
585.5		6.06E-05
585		3.83E-05
584.5		-4.18E-05
584		-3.83E-05
583.5		-5.42E-05
583		-1.01E-05
582.5		0.000109929
582		6.94E-05
581.5		-0.000124071
581		4.57E-05
580.5		8.80E-05
580		4.40E-06
579.5		0.000148868
579		0.000138724
578.5		0.000226309
578		4.57E-05
577.5		6.21E-05
577		0.000127358
576.5		0.00010891
576		2.38E-06
575.5		2.55E-05
575		-2.50E-05
574.5		7.27E-05
574		-0.000102974
573.5		-9.65E-06
573		0.000145126
572.5		0.000108512
572		-1.55E-05
571.5		-0.000109234
571		0.000142751
570.5		-5.20E-05
570		0.000136214
569.5		-7.67E-05
569		3.52E-05
568.5		-5.63E-05
568		3.94E-05
567.5		-3.08E-05
567		6.09E-05
566.5		0.000127823
566		1.39E-05
565.5		-5.41E-05
565		-6.70E-05
564.5		1.56E-05
564		3.80E-06
563.5		0.000128516
563		5.76E-05
562.5		9.81E-05
562		2.69E-05
561.5		0.000114147
561		6.36E-05
560.5		5.90E-05
560		0.000138799
559.5		-0.000104196
559		-1.60E-05
558.5		-8.18E-05
558		4.04E-05
557.5		8.20E-05
557		5.81E-05
556.5		5.90E-05
556		5.31E-05
555.5		5.37E-05
555		3.70E-05
554.5		-1.60E-05
554		5.11E-06
553.5		6.80E-07
553		1.15E-05
552.5		0.000145975
552		-5.30E-05
551.5		-4.48E-05
551		-5.38E-05
550.5		3.96E-05
550		1.81E-05
549.5		4.21E-05
549		-1.65E-05
548.5		-4.20E-05
548		-1.99E-05
547.5		3.42E-05
547		2.60E-05
546.5		-4.48E-05
546		-6.04E-05
545.5		5.00E-05
545		-7.44E-06
544.5		0.000121106
544		0.000107369
543.5		0.000133326
543		0.000163775
542.5		5.95E-05
542		2.32E-05
541.5		7.06E-05
541		7.67E-05
540.5		3.00E-05
540		-7.15E-05
539.5		9.06E-05
539		-2.09E-05
538.5		4.10E-05
538		1.56E-05
537.5		-6.97E-06
537		-2.97E-05
536.5		7.85E-05
536		5.21E-05
535.5		-3.69E-05
535		-6.19E-05
534.5		3.03E-05
534		4.03E-05
533.5		5.47E-05
533		3.46E-05
532.5		8.40E-05
532		-6.98E-05
531.5		-7.66E-05
531		-9.41E-05
530.5		0.000120319
530		4.80E-05
529.5		-1.56E-05
529		9.01E-05
528.5		5.49E-05
528		-9.52E-05
527.5		4.06E-06
527		2.34E-05
526.5		1.22E-05
526		2.26E-05
525.5		3.78E-05
525		6.58E-05
524.5		-3.65E-05
524		2.04E-05
523.5		6.99E-05
523		-2.00E-05
522.5		-8.85E-06
522		-0.000112893
521.5		-0.000140617
521		-3.80E-05
520.5		-1.39E-06
520		6.05E-05
519.5		-4.05E-06
519		3.66E-05
518.5		-4.27E-05
518		0.000106621
517.5		2.91E-05
517		-8.18E-06
516.5		-3.30E-05
516		9.91E-05
515.5		2.89E-05
515		4.51E-05
514.5		4.45E-05
514		0.00010745
513.5		-1.76E-05
513		0.000136773
512.5		-9.37E-05
512		2.08E-05
511.5		7.32E-05
511		-3.10E-05
510.5		1.50E-05
510		-5.14E-05
509.5		7.56E-05
509		-0.000121725
508.5		-2.23E-05
508		2.80E-05
507.5		6.07E-05
507		-1.51E-05
506.5		-0.000135519
506		5.31E-05
505.5		-7.79E-05
505		1.41E-05
504.5		3.45E-05
504		4.10E-05
503.5		4.30E-05
503		-6.14E-05
502.5		-1.61E-05
502		-7.28E-07
501.5		-1.25E-05
501		8.42E-06
500.5		6.30E-05
500		7.32E-06
499.5		7.28E-05
499		1.97E-05
498.5		7.22E-06
498		-1.59E-05
497.5		1.15E-05
497		4.71E-05
496.5		-2.81E-05
496		-0.000139248
495.5		-7.20E-05
495		-0.000103907
494.5		1.96E-05
494		6.75E-06
493.5		5.15E-05
493		-1.52E-05
492.5		4.37E-05
492		4.26E-05
491.5		-1.37E-05
491		5.69E-05
490.5		0.000117904
490		3.44E-05
489.5		-2.24E-05
489		-1.59E-05
488.5		4.46E-05
488		0.000104088
487.5		-6.52E-05
487		3.35E-05
486.5		5.10E-05
486		6.47E-05
485.5		0.000109579
485		-0.000102437
484.5		-9.94E-06
484		2.23E-05
483.5		-3.87E-05
483		0.000122463
482.5		7.28E-05
482		-8.97E-05
481.5		0.000125283
481		-2.49E-05
480.5		0.000146958
480		2.22E-05
479.5		4.08E-05
479		-6.37E-07
478.5		-1.61E-05
478		7.48E-05
477.5		3.64E-05
477		1.16E-05
476.5		-1.16E-05
476		-3.61E-05
475.5		4.51E-05
475		-3.91E-05
474.5		-7.21E-06
474		5.94E-05
473.5		0.000156185
473		-7.50E-06
472.5		1.24E-05
472		-2.96E-05
471.5		4.43E-05
471		0.000108357
470.5		3.70E-05
470		5.70E-07
469.5		9.39E-05
469		0.000123467
468.5		-0.000105073
468		-9.74E-06
467.5		0.000168883
467		-1.15E-05
466.5		-3.17E-05
466		6.80E-06
465.5		6.98E-05
465		-0.000111852
464.5		-5.96E-05
464		-7.16E-05
463.5		9.09E-05
463		-2.00E-05
462.5		-4.74E-05
462		4.04E-05
461.5		5.45E-06
461		-2.90E-05
460.5		0.000208602
460		2.94E-05
459.5		0.000103923
459		1.08E-05
458.5		-7.32E-05
458		-1.48E-05
457.5		0.000185239
457		0.000145872
456.5		5.54E-05
456		1.71E-05
455.5		-6.70E-06
455		3.48E-05
454.5		-3.98E-05
454		-1.09E-05
453.5		9.67E-05
453		-3.79E-05
452.5		-2.11E-06
452		-4.55E-05
451.5		0.000106611
451		5.04E-05
450.5		-0.000118141
450		3.38E-05
449.5		-0.000113065
449		-8.26E-05
448.5		1.73E-05
448		4.11E-05
447.5		2.71E-05
447		1.16E-05
446.5		3.32E-05
446		-3.50E-05
445.5		-1.77E-05
445		8.53E-05
444.5		7.48E-05
444		0.000135784
443.5		-4.17E-05
443		0.000153153
442.5		4.69E-05
442		-4.20E-05
441.5		8.75E-05
441		5.76E-05
440.5		5.89E-05
440		1.84E-05
439.5		5.52E-06
439		-5.67E-05
438.5		-5.11E-05
438		5.27E-05
437.5		2.69E-05
437		2.12E-05
436.5		0.000107897
436		9.58E-05
435.5		4.06E-05
435		-6.09E-06
434.5		-4.34E-05
434		0.000102902
433.5		8.48E-05
433		6.86E-05
432.5		1.41E-05
432		5.51E-05
431.5		9.93E-05
431		1.20E-05
430.5		5.34E-05
430		7.09E-05
429.5		4.79E-05
429		1.73E-05
428.5		0.000157207
428		-1.20E-05
427.5		-3.07E-05
427		-3.45E-05
426.5		-3.57E-05
426		-4.20E-05
425.5		-2.03E-05
425		2.60E-05
424.5		-6.77E-05
424		-1.82E-05
423.5		0.000111711
423		3.05E-05
422.5		-6.89E-05
422		-2.24E-05
421.5		1.29E-05
421		6.51E-06
420.5		-2.46E-06
420		-1.93E-05
419.5		-1.11E-05
419		4.00E-05
418.5		6.04E-05
418		-1.04E-05
417.5		-4.52E-05
417		3.96E-05
416.5		5.84E-05
416		-6.37E-05
415.5		3.27E-05
415		0.0001618
414.5		-2.16E-05
414		0.0001237
413.5		-2.88E-05
413		1.93E-05
412.5		2.10E-05
412		4.12E-06
411.5		4.73E-05
411		0.000110866
410.5		3.95E-05
410		-0.000161592
409.5		0.000117924
409		-4.32E-05
408.5		-1.55E-05
408		1.05E-05
407.5		1.42E-05
407		-2.57E-05
406.5		-6.05E-05
406		-3.51E-05
405.5		9.45E-07
405		7.71E-05
404.5		-2.65E-05
404		4.98E-05
403.5		-6.38E-05
403		5.94E-05
402.5		0.000139309
402		3.46E-05
401.5		9.76E-05
401		7.98E-05
400.5		7.26E-05
400		4.02E-05
399.5		-0.000126511
399		-4.56E-05
398.5		-8.68E-06
398		-1.45E-05
397.5		-1.36E-05
397		8.07E-05
396.5		-1.28E-05
396		-4.34E-05
395.5		-8.49E-05
395		0.000182591
394.5		4.80E-05
394		0.000121097
393.5		6.08E-05
393		1.46E-05
392.5		-1.05E-05
392		8.82E-05
391.5		1.99E-05
391		7.15E-05
390.5		-0.00010052
390		0.000173625
389.5		-1.97E-05
389		5.71E-05
388.5		-5.61E-06
388		0.000108706
387.5		3.35E-05
387		0.000113427
386.5		2.56E-05
386		0.000161179
385.5		9.69E-05
385		-2.11E-05
384.5		0.000155855
384		0.000125552
383.5		0.000143303
383		5.35E-05
382.5		7.14E-06
382		-1.32E-05
381.5		-3.01E-05
381		5.23E-05
380.5		-1.50E-05
380		-0.000105028
379.5		-1.05E-05
379		3.08E-05
378.5		-4.15E-05
378		0.000101407
377.5		5.97E-05
377		5.80E-05
376.5		4.57E-05
376		9.47E-05
375.5		0.00012212
375		4.17E-05
374.5		1.02E-05
374		5.13E-05
373.5		-2.78E-05
373		-0.000117788
372.5		-6.65E-05
372		-1.63E-05
371.5		2.08E-05
371		6.07E-05
370.5		-5.01E-05
370		-4.73E-05
369.5		8.34E-05
369		5.27E-05
368.5		-0.000137639
368		-0.000164848
367.5		7.94E-05
367		9.01E-06
366.5		3.44E-05
366		2.10E-05
365.5		-1.44E-05
365		2.06E-05
364.5		3.36E-06
364		4.49E-05
363.5		8.27E-05
363		4.67E-05
362.5		-1.64E-05
362		4.70E-05
361.5		1.59E-05
361		0.000112796
360.5		3.43E-05
360		7.90E-05
359.5		5.54E-05
359		4.40E-05
358.5		-1.92E-05
358		5.94E-05
357.5		8.28E-05
357		4.58E-05
356.5		-0.000134627
356		8.15E-05
355.5		-5.42E-06
355		3.89E-05
354.5		-3.65E-05
354		-6.15E-05
353.5		-8.70E-05
353		9.04E-05
352.5		-2.12E-05
352		-5.73E-05
351.5		3.16E-06
351		-4.27E-05
350.5		-2.18E-05
350		0.000111372
349.5		-4.54E-05
349		-5.42E-05
348.5		4.36E-05
348		8.37E-05
347.5		7.45E-05
347		0.000122312
346.5		-1.00E-05
346		-5.23E-05
345.5		8.82E-05
345		-7.27E-05
344.5		0.000162823
344		6.86E-05
343.5		5.35E-05
343		3.78E-05
342.5		1.22E-06
342		0.000159573
341.5		8.91E-05
341		-3.77E-05
340.5		-7.08E-05
340		0.000169449
339.5		-1.40E-05
339		3.87E-05
338.5		2.90E-05
338		1.65E-05
337.5		4.97E-05
337		4.92E-05
336.5		-4.45E-05
336		-1.33E-05
335.5		2.97E-05
335		-6.62E-05
334.5		-8.12E-06
334		-3.44E-05
333.5		-5.52E-05
333		0.000118747
332.5		8.26E-06
332		-1.44E-05
331.5		7.32E-05
331		0.000135562
330.5		-1.04E-05
330		1.01E-05
329.5		6.08E-05
329		-7.42E-05
328.5		-0.000153364
328		9.29E-05
327.5		4.72E-05
327		-3.24E-07
326.5		-2.77E-05
326		-2.77E-05
325.5		3.57E-05
325		5.58E-05
324.5		-8.01E-05
324		6.30E-05
323.5		-4.84E-05
323		4.60E-05
322.5		-0.000128953
322		6.11E-05
321.5		0.000105336
321		7.63E-05
320.5		-0.000111109
320		-2.17E-05
319.5		-9.25E-05
319		-6.98E-05
318.5		-6.14E-05
318		7.17E-05
317.5		4.00E-05
317		-3.46E-05
316.5		8.94E-05
316		-4.67E-05
315.5		2.98E-05
315		6.88E-05
314.5		-6.74E-06
314		-0.000113013
313.5		3.15E-05
313		8.09E-05
312.5		5.90E-05
312		0.000143431
311.5		-4.78E-05
311		-2.12E-05
310.5		-3.97E-05
310		2.94E-05
309.5		9.63E-05
309		7.66E-05
308.5		5.54E-05
308		-3.22E-07
307.5		2.13E-05
307		1.67E-05
306.5		5.84E-05
306		5.40E-05
305.5		-7.08E-05
305		-3.09E-05
304.5		8.91E-05
304		5.28E-05
303.5		-6.48E-05
303		3.04E-05
302.5		3.14E-05
302		9.61E-05
301.5		-7.29E-05
301		4.11E-05
300.5		-1.81E-05
300		9.96E-05
